AF3_media,AF3_varianza,AF3_max,AF3_min,AF4_media,AF4_varianza,AF4_max,AF4_min,AF7_media,AF7_varianza,AF7_max,AF7_min,AF8_media,AF8_varianza,AF8_max,AF8_min,AFz_media,AFz_varianza,AFz_max,AFz_min,C1_media,C1_varianza,C1_max,C1_min,C2_media,C2_varianza,C2_max,C2_min,C3_media,C3_varianza,C3_max,C3_min,C4_media,C4_varianza,C4_max,C4_min,C5_media,C5_varianza,C5_max,C5_min,C6_media,C6_varianza,C6_max,C6_min,CP1_media,CP1_varianza,CP1_max,CP1_min,CP2_media,CP2_varianza,CP2_max,CP2_min,CP3_media,CP3_varianza,CP3_max,CP3_min,CP4_media,CP4_varianza,CP4_max,CP4_min,CP5_media,CP5_varianza,CP5_max,CP5_min,CP6_media,CP6_varianza,CP6_max,CP6_min,Cz_media,Cz_varianza,Cz_max,Cz_min,F1_media,F1_varianza,F1_max,F1_min,F2_media,F2_varianza,F2_max,F2_min,F3_media,F3_varianza,F3_max,F3_min,F4_media,F4_varianza,F4_max,F4_min,F5_media,F5_varianza,F5_max,F5_min,F6_media,F6_varianza,F6_max,F6_min,F7_media,F7_varianza,F7_max,F7_min,F8_media,F8_varianza,F8_max,F8_min,FC1_media,FC1_varianza,FC1_max,FC1_min,FC2_media,FC2_varianza,FC2_max,FC2_min,FC3_media,FC3_varianza,FC3_max,FC3_min,FC4_media,FC4_varianza,FC4_max,FC4_min,FC5_media,FC5_varianza,FC5_max,FC5_min,FC6_media,FC6_varianza,FC6_max,FC6_min,FCz_media,FCz_varianza,FCz_max,FCz_min,FT10_media,FT10_varianza,FT10_max,FT10_min,FT7_media,FT7_varianza,FT7_max,FT7_min,FT8_media,FT8_varianza,FT8_max,FT8_min,FT9_media,FT9_varianza,FT9_max,FT9_min,Fp1_media,Fp1_varianza,Fp1_max,Fp1_min,Fp2_media,Fp2_varianza,Fp2_max,Fp2_min,Fz_media,Fz_varianza,Fz_max,Fz_min,O1_media,O1_varianza,O1_max,O1_min,O2_media,O2_varianza,O2_max,O2_min,Oz_media,Oz_varianza,Oz_max,Oz_min,P1_media,P1_varianza,P1_max,P1_min,P2_media,P2_varianza,P2_max,P2_min,P3_media,P3_varianza,P3_max,P3_min,P4_media,P4_varianza,P4_max,P4_min,P5_media,P5_varianza,P5_max,P5_min,P6_media,P6_varianza,P6_max,P6_min,P7_media,P7_varianza,P7_max,P7_min,P8_media,P8_varianza,P8_max,P8_min,PO3_media,PO3_varianza,PO3_max,PO3_min,PO4_media,PO4_varianza,PO4_max,PO4_min,PO7_media,PO7_varianza,PO7_max,PO7_min,PO8_media,PO8_varianza,PO8_max,PO8_min,POz_media,POz_varianza,POz_max,POz_min,T7_media,T7_varianza,T7_max,T7_min,T8_media,T8_varianza,T8_max,T8_min,TP10_media,TP10_varianza,TP10_max,TP10_min,TP7_media,TP7_varianza,TP7_max,TP7_min,TP8_media,TP8_varianza,TP8_max,TP8_min,TP9_media,TP9_varianza,TP9_max,TP9_min,Levodopa,PD
-1098.5026,7785.11,-861.7676,-1262.4023,-30924.764,1368.3058,-30802.588,-31019.238,1730.5852,15202.983,2108.6426,1477.1484,55.38296,7720.7275,264.50195,-198.29102,-11476.417,1116.2485,-11285.596,-11556.641,-3580.244,13801.547,-3400.4395,-3813.086,3637.3794,256.80902,3684.4727,3602.1973,6036.073,139.48924,6102.881,5986.1816,-1918.9963,2229.9143,-1821.6309,-2028.5156,8690.509,887.0411,8878.027,8547.852,4274.2,2667.2,4369.092,4124.6094,7884.4517,1017.3961,7946.4844,7823.4863,2132.8582,164.9305,2161.084,2105.7617,4970.708,1416.6294,5065.8203,4885.6445,2959.3699,291.40237,2993.6523,2902.3438,4517.925,175.32098,4596.826,4454.0527,-10335.219,2350.854,-10250.391,-10474.316,8651.877,1250.9545,8716.113,8585.791,9082.464,296.06573,9156.055,9030.713,-12399.292,332.95358,-12322.07,-12454.492,7166.776,3640.714,7325.3906,7030.176,-768.6006,349.05344,-680.0293,-843.9453,-399.84003,29633.654,-3.4179688,-720.21484,-1228.4117,4229.575,-1080.0293,-1449.0723,10072.881,2855.6038,10281.738,9901.855,1945.0563,2543.7766,2090.039,1754.9316,-5677.9907,4450.421,-5510.0586,-5783.3496,1186.8865,4648.7173,1334.4727,1040.9668,-502.26526,421.53238,-435.98633,-570.7031,1481.0332,2035.8055,1593.4082,1363.0859,3075.0361,8474.803,3310.1562,2885.0098,-5704.966,5420.7573,-5540.039,-5895.459,5798.8975,125.323204,5855.0293,5763.2324,-5859.8237,17725.895,-5612.549,-6164.209,7952.8125,4014.8381,8183.0566,7763.7207,7109.602,3741.4395,7241.3086,6934.961,-22946.527,2837.849,-22780.762,-23113.086,-15293.343,2185.811,-15038.574,-15406.689,-25985.02,42157.54,-25671.63,-26427.979,273.52267,10335.073,506.49414,90.72266,9167.682,826.6741,9231.25,9078.369,3958.3328,294.16934,4002.588,3882.8613,-6913.5522,1478.7269,-6817.4316,-6997.2656,301.81808,3545.126,420.80078,210.9375,3219.145,316.83234,3248.584,3152.588,838.03894,645.6382,879.10156,765.72266,-3964.2517,1362.5297,-3856.1035,-4045.2637,2723.942,1546.7332,2806.3965,2629.9316,-388.82672,2098.7712,-305.9082,-503.85742,-2340.2344,1786.2545,-2243.0664,-2414.6484,4379.0977,408.02774,4435.3516,4300.6836,7330.918,450.08243,7377.051,7262.6953,305.25485,1592.3463,381.39648,199.07227,3595.5645,165.77876,3643.0664,3543.3105,5326.2837,2367.4326,5421.1914,5196.7773,-4665.609,749.12805,-4602.3926,-4748.047,6775.36,1239.1136,6929.3457,6569.336,-12057.749,59089.707,-11665.771,-12531.982,463.14575,6255.6143,646.7285,271.43555,9828.552,331.65738,9894.824,9759.082,-14909.562,3450.814,-14819.678,-15087.646,-1604.6859,16000.77,-1265.7227,-1831.3477,1,1
-19877.154,6446.807,-19678.467,-20056.934,-15953.288,12198.3125,-15638.525,-16219.824,-11724.052,194147.67,-10963.379,-12542.627,-24776.56,12401.479,-24553.223,-25124.854,-13327.97,5411.6255,-13176.514,-13496.484,9865.567,138291.28,10510.791,9203.027,2020.6641,160287.27,2740.332,1310.6934,7096.2866,6726.931,7227.49,6918.0176,-6505.5327,603609.4,-5176.709,-7507.8613,-4435.4785,57638.914,-4015.8203,-4794.092,-4019.4373,431434.38,-2807.129,-5165.4785,4461.4136,1770528.9,7113.7207,2327.246,6567.139,4793.8433,6657.2266,6390.625,10185.929,3087.3948,10271.045,10055.176,1695.2166,359123.38,2704.1992,638.5254,11412.516,364474.2,12482.861,10376.855,-2188.035,29782276.0,8367.871,-13265.771,-2754.3926,138838.73,-2142.871,-3415.918,2650.1492,514877.47,3820.3125,1202.002,-17346.863,138014.9,-16726.172,-18016.26,-893.3687,90759.84,-353.125,-1461.6211,-7960.696,81711.0,-7315.967,-8513.037,-14415.932,93392.73,-13773.486,-14937.842,-816.5424,220014.98,52.148438,-1641.8945,-8109.35,136638.31,-7453.9062,-8640.967,-17761.5,164396.72,-16956.738,-18431.836,6825.2227,13424.303,6977.6855,6580.8105,4043.5288,2681.8032,4133.9355,3914.5508,7008.4204,1142.3936,7087.256,6905.5176,5175.4473,2158.4622,5315.674,5049.5117,401.31375,75968.08,855.12695,-141.94336,8085.6562,9555.351,8257.861,7812.0117,-6963.1816,4619.8154,-6854.541,-7120.5566,701.57794,317589.06,1880.0293,-379.6875,3494.0754,234806.98,4366.1133,2624.8047,3968.4897,22449.857,4227.783,3628.7598,-3486.2605,4135.1494,-3341.211,-3730.6152,-15762.679,285548.12,-14815.967,-16761.28,-30793.621,22690.238,-30484.96,-31205.664,-17845.582,146865.55,-17203.467,-18533.398,838.64124,30029.201,1343.1152,582.666,-3753.0146,13523.26,-3552.9785,-4105.713,6259.792,10308.365,6464.5996,6035.254,26806.998,294676.03,27801.904,25858.545,3909.5835,194436.06,4657.7637,3153.8086,-3000.835,3962.7134,-2864.3555,-3133.1543,747.12445,58964.58,1182.959,258.54492,15354.739,239497.8,16234.326,14509.814,463.5213,60248.406,900.24414,-29.93164,11902.02,58131.46,12298.877,11412.207,587.7646,58572.258,1032.4707,103.85742,-1192.7352,267637.66,-281.49414,-2040.625,-240.95406,68746.695,231.15234,-708.78906,9596.527,54864.992,9952.197,9092.285,-4297.812,10183.634,-4108.496,-4622.168,-3402.675,293161.3,-2455.713,-4352.3926,4558.4185,344292.25,5599.9023,3549.463,-15337.5205,509413.88,-13887.939,-16666.357,3622.0015,459807.0,4773.4375,2388.5742,11723.752,1404279.6,13815.381,9719.434,-970.009,194714.36,-240.13672,-1812.8906,7799.9893,19134.545,8045.9473,7525.9766,1,1
-13690.635,1440.2821,-13603.418,-13861.377,-21642.924,2410.7751,-21516.602,-21856.836,-2535.495,10567.126,-2375.7812,-2852.295,-22409.082,6478.029,-22271.582,-22690.332,-4749.1807,1713.5675,-4627.588,-4864.9414,3078.738,1408.7954,3142.6758,2982.8125,4706.7993,164.52194,4742.92,4667.871,3947.2676,4510.2666,4061.914,3780.3223,6020.0513,12676.675,6199.2188,5758.203,1768.4983,747.2766,1847.5098,1671.8262,-3530.3403,821.9884,-3456.6406,-3592.4805,3175.7917,2039.676,3237.5,3061.3281,2613.183,527.03766,2656.6406,2550.9766,3971.3552,6087.482,4097.51,3795.752,3518.6626,2089.979,3609.5215,3428.5156,3344.7144,1593.2491,3422.9004,3237.8906,4822.09,229.86417,4861.8164,4768.164,2351.071,3506.7341,2449.5117,2215.5273,513.8503,878.33105,578.56445,390.91797,261.9925,374.23224,307.22656,177.29492,7961.033,5302.27,8073.9746,7756.0547,-28056.219,4140.7036,-27929.297,-28278.37,-26149.42,13638.306,-25954.883,-26449.854,-22093.924,4066.506,-21984.229,-22345.703,-9850.348,17153.748,-9642.334,-10149.121,-21804.555,4809.352,-21684.668,-22065.87,5207.547,3973.7344,5308.6426,5064.6484,6236.2783,184.6369,6273.584,6180.42,580.62946,7139.68,721.77734,390.72266,1827.7461,2707.0547,1943.4082,1675.8789,2560.924,1305.6909,2656.8848,2419.8242,5541.4053,5683.065,5692.1387,5337.3535,9264.766,4085.5735,9360.547,9096.973,-9785.737,8640.001,-9606.787,-10002.979,-13305.201,9485.466,-13154.199,-13543.164,-12946.04,5617.377,-12785.254,-13103.809,2818.9426,3499.0332,2930.713,2656.4941,-10836.133,8116.063,-10698.535,-11187.549,-12432.903,2868.366,-12341.406,-12743.896,1817.3649,2511.6711,1902.9785,1654.3457,4475.4644,1511.9446,4566.992,4354.199,2922.3142,1040.266,3011.3281,2851.9043,2031.0066,208.30199,2076.0254,1968.7988,536.2439,1420.3027,611.7676,426.85547,-1243.3151,604.1996,-1192.3828,-1302.7344,6829.3076,5193.114,6960.498,6667.1875,565.3828,5679.6387,683.9844,390.8203,-3324.5403,7710.854,-3188.2324,-3492.2363,5099.039,1807.1985,5204.1504,4961.621,5406.183,17751.398,5630.0293,5107.8613,4705.602,1909.5508,4813.037,4565.576,3794.5977,2094.185,3897.412,3669.8242,4097.7363,18753.926,4343.9453,3812.6953,4020.9097,6553.0786,4172.119,3820.0195,6066.1494,3943.8657,6185.547,5907.8125,380.7226,1435.6027,447.5586,265.23438,-8343.662,14105.988,-8123.584,-8587.939,4701.903,3899.3823,4839.795,4536.914,-6771.8013,33193.105,-6461.2793,-7146.7773,-4199.379,7494.0815,-4009.4238,-4373.1445,4272.9507,13303.929,4481.006,4006.7383,-1705.4258,496.583,-1628.0762,-1792.2363,1,1
-13942.096,19043.95,-13655.469,-14183.887,9066.606,1910.8419,9166.699,8971.729,-244.20184,3796.0593,-69.62891,-426.46484,8047.177,6239.782,8257.8125,7889.453,1937.5072,22679.26,2202.295,1682.1289,9195.3955,1360.2495,9288.916,9131.396,9239.958,1223.0012,9313.184,9164.844,9893.196,32422.885,10220.947,9621.436,-1224.2036,21403.088,-942.6758,-1443.9941,13529.495,13034.56,13800.244,13341.943,14157.745,51810.074,14540.283,13804.004,5565.695,18619.709,5790.039,5289.4043,-4368.761,9788.425,-4164.1113,-4500.4395,11254.14,3835.266,11387.061,11168.994,-1038.2242,16630.625,-803.56445,-1195.3613,13560.887,1883.5245,13687.109,13457.08,-2097.176,11608.029,-1762.0117,-2261.1328,12246.065,4713.107,12382.373,12155.566,-11723.722,2886.039,-11602.148,-11816.992,-1981.3578,2570.859,-1865.1367,-2060.9863,-8023.903,74129.77,-7534.375,-8452.539,-761.8663,2874.7021,-636.03516,-838.76953,-10987.606,38888.06,-10650.781,-11322.217,-6732.3105,51118.555,-6292.5293,-7082.666,-2053.372,81217.21,-1351.416,-2447.6562,-4262.35,30812.982,-3877.9785,-4493.457,6784.635,20882.488,7041.211,6578.3203,16079.567,211584.3,16854.932,15338.867,-7532.0913,2278.04,-7396.338,-7634.033,-6635.4863,5201.452,-6481.494,-6745.3613,10243.727,15045.307,10540.625,10016.455,7433.6816,13105.736,7699.756,7262.3047,11872.78,5285.5957,12022.51,11772.314,-11280.977,6512.1094,-11040.186,-11475.439,2140.9966,19046.707,2418.9453,1878.0273,16398.115,19864.205,16662.89,16190.576,777.36945,32781.273,1196.7285,436.57227,18071.908,17168.906,18319.14,17867.334,-13524.298,3472.8264,-13390.186,-13663.428,-6128.9,1669.8085,-6033.301,-6215.967,10079.6,325648.1,11022.949,9143.311,-6832.8906,38637.63,-6474.951,-7103.369,-6395.2,8901.817,-6177.9297,-6530.615,3308.4727,27951.766,3594.0918,3060.1074,-3806.9985,23643.75,-3501.6113,-3978.3691,18019.479,26565.363,18301.172,17763.867,5583.1304,4670.7725,5723.047,5490.381,15433.793,42260.812,15779.541,15107.08,1099.9592,47731.742,1495.5566,784.61914,8864.848,20044.885,9154.541,8558.936,-6573.0537,25333.34,-6288.8184,-6797.5586,8797.144,25650.99,9077.002,8538.379,1540.0284,13133.005,1757.4219,1383.5938,6744.6147,38559.785,7091.1133,6421.1426,-8090.837,80537.195,-7613.1836,-8530.322,-2921.3323,11808.95,-2712.3047,-3063.7695,15586.663,13341.234,15802.344,15378.955,-10742.099,6511.728,-10564.111,-10855.371,-2681.1206,278706.84,-1693.3594,-3615.4785,-9400.357,6390.4746,-9196.533,-9646.924,1077.4169,44181.88,1433.4961,767.48047,7958.388,17408.785,8296.436,7680.908,1,1
-4461.7905,11429.995,-4210.205,-4732.0312,-6574.028,12156.236,-6359.5703,-6795.6543,-3096.745,7953.1533,-2877.8809,-3335.3027,-14239.129,13021.535,-14014.551,-14527.637,5330.434,2659.5706,5470.5566,5210.01,5409.284,11915.134,5591.992,5209.033,5252.3086,576.92334,5290.674,5195.117,2069.4802,193.47365,2098.0469,2022.6074,-2175.7476,6430.5327,-2029.0039,-2324.9023,-2249.483,1311.0708,-2182.8125,-2360.0098,1092.3143,424.3359,1145.0684,1031.4941,3675.9482,224.7178,3715.7227,3647.8516,896.8879,139.95009,930.81055,862.9883,-1981.4972,4300.5737,-1874.6094,-2118.8477,5631.8745,673.0662,5675.6836,5562.3535,-4362.7705,2901.783,-4266.455,-4485.742,-456.4612,239.39932,-412.89062,-504.3457,483.78064,36.816696,497.60742,468.60352,7676.341,1807.4062,7750.586,7596.924,255.50381,449.29404,322.36328,195.9961,1661.6199,291.52148,1705.7129,1622.998,1996.5157,1038.1298,2083.6426,1901.8066,-3984.364,20337.121,-3666.7969,-4318.75,-14254.014,12891.341,-14028.809,-14540.625,-3299.1526,3679.4258,-3183.7402,-3435.3516,-14468.692,12878.01,-14246.533,-14757.52,4678.944,3267.5076,4776.465,4565.283,4148.7407,50.653816,4177.0996,4125.293,-8140.86,5860.697,-8010.9863,-8265.967,2073.1382,205.34943,2114.8438,2039.9414,-4239.497,713.23645,-4185.742,-4335.9375,815.1693,2464.5984,918.2129,699.8535,5181.3574,138.6069,5213.916,5143.506,-5256.956,3606.1782,-5136.426,-5385.6934,-4823.5845,379.82007,-4770.508,-4894.4824,-3505.3186,365.14487,-3457.129,-3575.2441,-9473.085,5133.431,-9312.744,-9629.932,-4173.581,20774.895,-3853.4668,-4512.9883,-14932.769,13229.219,-14703.418,-15222.119,2630.5437,641.5402,2705.2246,2568.6035,-926.0574,254.98457,-868.8965,-973.7793,2115.7715,783.5042,2190.3809,2021.3867,1961.6707,2016.831,2053.418,1859.8633,357.39157,1617.752,418.60352,264.20898,-3272.485,1123.928,-3217.0898,-3347.1191,3379.389,190.08452,3419.4824,3334.7168,-2510.8572,1633.2748,-2449.0234,-2617.8223,3069.242,1322.395,3136.377,2980.713,4341.169,178.10033,4377.295,4295.9473,-4418.941,4344.2515,-4308.252,-4563.867,4706.761,228.41565,4751.709,4644.385,4184.639,238.72652,4220.996,4137.3047,1313.3062,1474.7845,1379.1504,1215.7715,4668.8657,554.08234,4733.8867,4593.3105,5430.7627,196.9814,5473.047,5371.289,457.31897,961.235,514.35547,372.85156,-4568.9526,264.3162,-4523.926,-4636.133,5406.403,1201.0118,5480.664,5257.4707,-223.12746,700.57117,-154.05273,-303.90625,-4208.693,2794.8015,-4112.158,-4331.885,-905.7095,5384.6885,-749.70703,-1071.3867,-4045.5396,2101.563,-3959.3262,-4154.541,1,1
-15910.431,37846.652,-15573.975,-16223.682,-5717.6826,23860.021,-5402.881,-5943.506,18.688885,69705.625,592.82227,-522.2656,-17334.902,2529.2327,-17175.977,-17444.14,-13492.602,17064.83,-13227.539,-13733.154,1346.6772,121.63407,1380.127,1318.8965,-2264.3271,1485.4393,-2200.7812,-2341.8945,-6567.061,1123.7751,-6494.092,-6638.916,761.75903,141.43254,791.6504,731.49414,-2050.512,1886.7593,-1966.4062,-2133.8867,-13972.905,8612.355,-13787.207,-14123.535,-2592.502,9506.535,-2423.8281,-2768.75,-3110.4434,2099.1775,-3039.6484,-3201.5625,-5163.7896,61.783127,-5141.162,-5197.949,-1965.4407,359.8263,-1924.0234,-2009.2773,-1748.1277,567.0203,-1697.2656,-1814.3555,-1059.2502,311.16165,-1018.4082,-1107.7637,-778.1436,267.39056,-746.77734,-812.06055,-808.9569,579.7803,-751.7578,-870.75195,-10290.062,3777.783,-10154.248,-10392.09,-992.218,257.78226,-940.7715,-1028.1738,-10218.357,4135.7383,-10076.172,-10322.705,-9323.662,12534.11,-9137.207,-9501.514,-8541.666,4435.9077,-8392.48,-8659.424,-9597.979,15370.346,-9388.281,-9794.287,-8521.006,4325.614,-8373.975,-8637.305,-812.88824,154.83958,-783.0078,-847.9004,-2790.001,1149.5352,-2733.1055,-2859.6191,-2744.7605,1780.1079,-2653.6133,-2814.4531,-5783.5967,3390.8074,-5665.1855,-5891.3574,-3614.9956,3524.8242,-3518.7988,-3726.416,1089.3911,632.82764,1149.4629,1030.8594,2369.3962,56.659348,2391.455,2342.3828,-5546.8623,1565.7006,-5450.4883,-5619.043,-9193.669,2244.0525,-9086.719,-9278.564,-3258.3796,380.01523,-3196.7285,-3306.2012,-335.68362,507.91672,-273.33984,-402.88086,-5566.889,12087.09,-5357.666,-5800.0977,-19236.123,52173.863,-18763.428,-19780.176,-7371.4165,3880.3447,-7241.3574,-7478.6133,-3043.489,759.4159,-2980.5176,-3120.2148,-4631.877,463.85474,-4560.498,-4695.459,-767.8921,524.56665,-708.2031,-845.6543,-3019.9324,426.54562,-2978.955,-3067.334,-2254.435,5015.7256,-2126.123,-2396.7773,-860.1533,116.52488,-830.4199,-904.05273,545.6553,143.26945,574.9512,507.66602,-1620.7051,994.38464,-1558.1543,-1701.0254,-9598.236,1101.4734,-9488.525,-9668.994,-5790.09,4174.4404,-5659.2773,-5919.385,-8491.219,2378.806,-8352.832,-8583.691,-10602.509,247.03468,-10555.664,-10648.633,760.04266,376.9976,806.54297,702.7344,-13115.622,4066.0051,-12993.555,-13247.119,-4475.509,929.3627,-4406.25,-4562.4023,-4762.201,269.7379,-4718.8965,-4817.1875,-17483.172,10651.031,-17281.836,-17663.77,-10253.84,1723.8433,-10171.533,-10347.07,-287.08032,629.2267,-218.26172,-358.93555,-1501.2458,928.37885,-1439.209,-1583.1055,-5131.184,1348.8785,-5057.1777,-5212.5,-4477.974,254.75876,-4427.832,-4545.117,1,1
-22070.701,561536.3,-20966.943,-23910.059,-27811.139,48395.297,-27354.932,-28158.35,-23905.201,25992.639,-23550.586,-24217.383,-26959.658,54262.84,-26501.318,-27367.041,-9207.615,7133.022,-9030.713,-9387.695,-19226.305,180729.89,-18494.482,-20092.334,-4334.4336,3138.4058,-4196.6797,-4420.0195,-12292.867,135356.48,-11574.316,-13046.484,-11062.228,38556.816,-10704.395,-11368.994,-15132.72,37960.832,-14698.047,-15540.332,-7062.6416,26952.418,-6666.8945,-7302.3438,-12390.661,17081.717,-12121.533,-12638.232,-7268.5293,88138.086,-6914.258,-7707.715,-887.3759,62212.18,-360.79102,-1262.5488,1201.1389,24419.19,1475.7324,927.14844,-8558.49,9930.814,-8322.51,-8715.576,3536.9697,10003.867,3743.164,3354.1504,-7183.836,12424.407,-6950.4883,-7336.426,-25571.945,2694.1497,-25417.334,-25681.738,-8205.527,54155.832,-7839.9414,-8672.314,-9362.043,1515.1412,-9279.15,-9467.432,3068.03,979.1853,3153.1738,3006.2012,-22049.385,40796.664,-21691.26,-22432.861,-28115.73,92428.09,-27474.805,-28583.496,-25469.797,11936.978,-25202.1,-25742.725,-3591.0405,68521.96,-3006.2012,-4041.748,-23762.402,54180.63,-23323.34,-24044.678,-17821.191,10661.017,-17642.822,-17997.656,-20274.71,55803.77,-19845.508,-20651.074,1355.7584,1655.976,1452.5391,1273.4375,-7807.1367,1091.5658,-7676.2695,-7918.457,2171.5378,4919.5107,2346.875,2022.8027,4378.015,3351.9182,4524.0723,4268.115,-425968.9,30906.691,-425598.66,-426871.12,-2057.6853,10964.767,-1815.625,-2312.6465,-3478.3271,1552.4335,-3361.4746,-3593.3105,-135198.1,49424716.0,-122057.76,-147582.61,-27252.771,1239.2393,-27156.201,-27369.434,-27583.434,31567.627,-27223.584,-27934.912,-1893.8419,1474.0325,-1801.9531,-1967.1875,-16644.568,23258.057,-16363.672,-16902.1,-19126.674,3341.034,-18963.33,-19251.758,-20739.988,7839.005,-20522.559,-20920.947,3448.646,837.35944,3517.2852,3390.8203,-7917.163,23657.756,-7652.3438,-8196.973,-14584.718,64570.973,-14025.879,-14966.162,-10464.223,20132.768,-10159.521,-10731.006,-15657.493,165836.05,-14806.055,-16346.68,-13236.139,75400.83,-12661.963,-13709.18,-19251.547,38252.68,-18855.42,-19585.059,1999.88,1269.3765,2120.2637,1912.793,-6090.5986,1570.8644,-6022.5586,-6188.672,-2737.3833,19234.959,-2483.2031,-2991.162,-13910.709,1238.7985,-13803.809,-14002.393,-2131.818,1178.2216,-2001.6602,-2205.2734,-12150.032,2592.773,-12028.955,-12268.359,-9770.671,26012.076,-9445.752,-10107.227,-9985.743,228695.08,-9133.545,-10681.445,1533.5277,455.66336,1605.4199,1444.4824,-25313.277,43392.406,-24882.031,-25685.645,-17765.902,58800.617,-17258.35,-18158.691,-44991.848,105001.516,-44152.44,-45901.367,1,1
-6626.5293,36325.94,-6224.2676,-6923.4375,-4302.3213,8846.471,-4067.0898,-4450.1465,-5114.515,190062.03,-4372.119,-5768.0176,-6445.0264,75437.11,-5869.7266,-6841.211,-3145.0476,9436.557,-2892.041,-3280.1758,1211.932,14237.73,1458.4961,1037.1094,-6279.1714,20316.531,-5992.285,-6502.9297,-6447.165,98448.64,-5932.1777,-7002.49,-8288.538,24512.158,-7989.9414,-8510.205,-383.02893,43914.824,-42.91992,-743.99414,-6453.689,54312.715,-6040.7715,-6823.291,1244.5664,4223.4507,1359.6191,1147.0215,467.02985,2862.6438,581.7383,387.40234,-4511.797,17653.459,-4265.625,-4722.6562,-6366.9316,11676.401,-6154.9316,-6540.869,-2627.1465,78097.23,-2101.0742,-3010.1074,14476.819,1273.9865,14573.096,14405.566,2465.0796,5234.8975,2592.8223,2347.168,-7059.5566,30484.9,-6726.123,-7311.8164,-4412.97,499.83707,-4340.576,-4475.4395,-8627.013,25499.959,-8259.082,-8886.865,-6791.489,19150.45,-6518.0664,-7008.1055,-9152.583,19633.15,-8858.838,-9363.867,-3387.643,15877.717,-3102.1484,-3584.0332,-1793.256,35107.215,-1474.707,-2073.1934,888.52124,14305.036,1173.0957,683.6426,-5334.4814,80481.164,-4842.4805,-5744.4824,-9319.128,37243.566,-8931.836,-9595.85,4230.699,60723.426,4663.867,3853.4668,-6315.9,40234.574,-5910.3516,-6627.0996,-12863.102,171054.64,-12018.164,-13486.914,-11941.119,84923.13,-11387.939,-12399.17,1376.6068,27617.135,1691.5527,1132.8613,9382.98,7461.35,9569.58,9231.592,-2032.9966,18399.307,-1778.125,-2271.0938,-6322.649,23828.451,-5979.7363,-6551.8066,1115.8732,147873.39,1801.0254,569.53125,-6634.9473,60696.35,-6060.8887,-7000.7324,-7469.525,59109.55,-6895.3125,-7808.1055,-2594.5264,2771.6104,-2477.1484,-2705.713,-6207.391,68955.445,-5794.092,-6774.2676,16858.332,20679.514,17136.475,16577.002,-7766.582,48481.176,-7341.8457,-8117.871,-9375.244,31744.594,-9062.939,-9689.551,-9651.795,173522.89,-8919.678,-10299.854,-1097.1154,24892.01,-779.1992,-1375.1953,12829.983,20652.97,13065.137,12575.879,14775.135,13619.125,14990.332,14572.461,9831.805,9286.925,9961.621,9459.814,-16021.733,93092.71,-15422.51,-16514.99,5524.3096,71477.766,6005.957,5043.6523,-3466.958,23412.28,-3187.2559,-3831.7383,10546.449,1409.081,10681.152,10432.666,-8021.4194,38336.496,-7634.8145,-8341.504,18215.152,35785.82,18591.895,17864.746,-13584.235,54224.766,-13123.486,-13968.848,4391.6147,153116.94,5100.342,3835.9375,-8287.922,56932.977,-7797.8027,-8648.291,-7393.921,41398.28,-6983.203,-7693.408,-14002.118,112728.12,-13314.99,-14524.072,6411.422,96115.36,6979.492,5908.252,-24275.34,222846.38,-23266.65,-25046.094,1,1
-29426.545,84624.84,-28871.338,-29963.135,-26324.342,74825.08,-25772.217,-26865.234,-29386.094,48023.082,-28967.676,-29825.83,-3173.1643,111330.914,-2526.9531,-3824.8535,-20579.877,66194.34,-20063.037,-21036.914,-2604.7222,1885.6941,-2540.088,-2698.291,4031.7698,1061.2734,4090.332,3963.2812,1437.7821,26624.512,1716.0156,1155.4199,9155.545,1043.2932,9233.594,9058.398,4244.507,415.30167,4330.908,4177.7344,-6023.6914,2978.6482,-5825.0977,-6108.1055,1044.325,5100.746,1140.5762,925.1953,-1300.8296,530.1296,-1245.4102,-1345.3125,-2825.9348,36904.21,-2485.0586,-3163.4277,-4116.94,1598.5079,-4033.5938,-4191.455,-3349.8496,5682.908,-3174.9512,-3531.836,6724.3076,5290.1006,6883.9355,6559.7656,-379.48672,5017.267,-254.15039,-558.3008,2548.8936,307.90204,2605.0293,2483.252,6621.7905,1901.3059,6731.787,6496.24,-22715.115,44299.32,-22272.46,-23096.436,-13847.17,40200.8,-13458.398,-14229.199,-26737.436,37368.836,-26293.31,-27055.078,2469.8767,19354.893,2739.9414,2144.5312,-19631.951,59383.01,-19156.396,-20118.945,-4565.355,88598.3,-3984.1309,-5158.74,-2874.3157,2641.6694,-2791.3086,-3003.5645,9672.995,33906.54,9972.07,9349.609,-1380.8046,733.63513,-1316.4551,-1453.418,-2407.179,4994.3643,-2287.1094,-2546.0938,-23971.49,5029.3057,-23743.066,-24103.516,9264.628,5380.43,9428.809,9082.031,-361.37137,835.41364,-303.41797,-434.27734,-561.02594,718.148,-470.75195,-662.93945,-15236.47,8619.668,-15049.414,-15420.996,-7593.6963,5980.4897,-7461.133,-7821.826,-13095.455,4524.8125,-12961.23,-13264.746,-23482.13,12930.708,-23174.316,-23686.23,-24301.295,103054.836,-23596.29,-24893.701,6866.069,1453.5673,6964.502,6750.635,-5897.0347,777.0575,-5831.9336,-5976.2695,502.73047,7656.147,636.86523,324.07227,-5254.9478,1222.3837,-5182.5195,-5351.5137,-5504.0503,497.34045,-5457.1777,-5566.3086,4623.2393,381.27908,4663.916,4574.5605,-4524.5723,21039.197,-4301.074,-4823.7305,1001.07367,3970.8625,1089.5508,848.584,3627.9448,2956.0378,3751.3184,3503.418,613.9265,3873.5474,740.9668,474.16992,-3394.4644,673.5323,-3330.664,-3472.168,7010.116,5618.418,7175.3906,6843.164,871.6051,547.80396,928.22266,803.22266,4292.431,241.36105,4342.2363,4245.0684,-11078.927,4429.3394,-10941.26,-11236.377,7148.5186,2460.984,7267.2363,7017.8223,127.70588,991.36017,190.23438,44.384766,-18709.336,11989.458,-18509.766,-18954.443,6928.178,4901.432,7079.1504,6738.379,4789.453,4364.6587,4942.676,4611.084,-18127.668,743.5427,-18039.55,-18240.283,4466.4346,6192.434,4619.58,4294.824,-26561.695,7886.427,-26395.703,-26773.047,1,1
-11966.85,3875.6208,-11793.799,-12140.479,872.9718,7024.1567,1182.1289,725.8789,5089.2705,10051.117,5369.043,4910.6934,5608.673,1788.809,5858.4473,5508.203,460.85263,4815.6816,710.35156,306.00586,17293.113,114.27266,17331.543,17259.13,-14017.313,26668.742,-13742.432,-14312.207,6491.8633,910.43054,6580.2246,6416.162,-7299.1284,4928.995,-7177.588,-7440.674,-25104.564,5048.4087,-24933.838,-25277.002,1155.0576,17766.89,1425.2441,857.4219,13392.354,292.7362,13426.416,13341.016,-6638.9395,5021.794,-6525.0,-6786.7676,-819.33856,907.4418,-758.25195,-917.3828,-416.2562,1891.8754,-318.2129,-525.6836,-10965.914,2079.2202,-10858.447,-11080.078,-753.66034,1220.6528,-668.50586,-860.0586,1630.737,522.7407,1682.666,1557.7148,-118.70618,746.5943,-18.261719,-184.57031,-14662.531,21427.15,-14373.34,-14892.334,-12.575867,899.24585,94.28711,-83.88672,-1785.142,2234.3103,-1645.3125,-1889.5508,315.0746,668.56116,412.01172,251.66016,-10722.252,4189.4585,-10507.715,-10863.77,-950.049,7115.6416,-728.02734,-1103.9551,-9156.587,8178.8955,-8825.781,-9334.082,470.15466,9397.488,662.40234,272.9004,3098.9312,11678.232,3287.9395,2890.088,11494.883,992.9504,11598.389,11412.891,-25773.182,30224.672,-25478.125,-26086.328,7316.756,6791.4775,7550.244,7144.092,667.92303,14013.611,985.7422,454.10156,-3907.2273,436.9107,-3845.9473,-3974.3652,-4390.809,67788.7,-3889.6973,-4896.4844,7367.2544,18469.805,7666.8457,7072.9004,-3389.379,16509.176,-3099.17,-3638.379,10982.798,4382.314,11147.021,10862.598,-19261.865,11205.766,-18980.713,-19456.201,-20056.916,9346.759,-19770.947,-20243.164,-1439.0671,653.6303,-1345.7031,-1516.2598,12703.236,2987.1414,12829.15,12564.16,-968.42883,15485.765,-766.3574,-1237.7441,-830.294,15540.173,-628.8086,-1098.4863,10749.761,292.6514,10782.373,10680.859,3154.029,472.95135,3191.7969,3080.5176,4902.0884,644.4986,4971.6797,4851.758,-7918.434,6427.8843,-7764.3555,-8083.6426,5997.4683,7055.4673,6172.412,5825.83,1458.0856,19708.904,1727.0996,1199.707,5701.1826,6800.9956,5874.121,5532.8613,-1493.4028,2305.7048,-1386.1328,-1642.041,7887.2935,1214.0436,7966.992,7796.924,-1680.3927,16955.525,-1470.5566,-1956.3965,12646.916,291.71323,12722.9,12570.654,-2051.0054,3587.551,-1937.793,-2187.0605,179.0463,346.8698,236.47461,114.208984,6985.897,1460.6683,7073.877,6750.3906,-12876.497,14703.739,-12567.871,-13046.289,-8585.67,740.3221,-8505.615,-8682.568,8057.1885,16133.072,8341.846,7798.9746,-8965.649,1570.0717,-8875.098,-9085.742,5255.8623,1909.0327,5438.33,4994.9707,1,1
11146.885,3224.6758,11262.793,10962.549,-582.8533,4009.9526,-458.4961,-754.58984,-3951.6086,899.6149,-3855.0293,-4026.6602,4353.934,7806.4434,4557.8613,4196.826,10212.752,439.39478,10280.762,10139.453,20171.441,1964.1663,20259.375,20074.56,10465.294,82324.13,10816.357,9700.684,4598.427,6631.4087,4725.635,4421.582,8745.027,1310.4768,8832.52,8652.1,5127.4775,6146.175,5289.4043,4966.455,9245.047,2895.6533,9373.047,9140.186,17518.658,7733.303,17655.957,17372.852,2688.872,14897.188,2916.7969,2472.754,21371.38,2924.032,21468.994,21269.873,7092.938,23375.465,7338.5254,6820.703,-40.05755,34136.906,283.20312,-345.26367,16010.207,909.49084,16116.113,15953.613,4631.5884,4867.7925,4780.3223,4525.0977,10498.676,713.2229,10592.236,10435.986,5325.2437,7336.4785,5474.17,5062.256,10604.677,502.76047,10695.02,10547.852,15320.764,1854.442,15422.949,15183.838,10142.865,2358.7822,10265.82,10038.184,14941.081,599.7585,15039.795,14865.43,-1714.4006,7924.495,-1510.3516,-1907.5195,-4381.859,7033.8555,-4076.123,-4506.6895,19777.03,535.0995,19840.479,19713.184,2608.488,2753.4097,2709.2285,2495.2637,9609.647,13259.388,9839.16,9352.246,12770.547,16228.692,13079.639,12591.797,-4497.718,6458.038,-4355.5664,-4626.6113,7269.8354,1556.6223,7361.2793,7134.082,18541.709,490.17987,18620.996,18481.494,15931.671,6804.7217,16073.975,15735.01,23696.113,1852.9882,23783.398,23605.957,-4010.5808,36397.08,-3610.205,-4312.3535,14240.855,49723.535,14646.729,13819.873,-4422.486,14537.052,-4164.8926,-4686.377,10868.597,3330.0535,11011.426,10698.828,16748.295,7045.946,16900.684,16523.047,19103.414,569.7805,19188.428,19030.371,18700.754,528.14886,18799.512,18622.754,7257.8013,3016.1726,7369.5312,7105.3223,23932.012,9502.023,24110.205,23728.223,8243.572,29746.336,8498.047,7876.5137,2701.078,1601.9052,2791.5527,2599.0234,11445.345,34407.46,11740.674,11109.326,22128.27,8490.868,22305.176,21924.316,21302.867,3242.5093,21406.64,21110.986,-5648.429,13636.14,-5400.9766,-5864.3555,18378.697,462.4998,18460.547,18300.195,21672.652,1427.876,21768.31,21587.89,8182.334,38392.137,8518.359,7771.7773,10176.34,9634.985,10336.67,9927.539,22024.117,13503.202,22250.781,21756.201,11411.29,75954.73,11884.082,10864.404,-9374.157,21643.54,-9125.586,-9618.701,-1738.1256,44898.35,-1326.2695,-2076.1719,25016.566,746.7801,25101.123,24916.016,-12486.913,18205.006,-12233.203,-12747.607,-7733.4995,21151.709,-7471.338,-8013.867,6586.4556,690.5541,6660.0586,6487.158,1,1
-4219.6206,5443.15,-4105.5176,-4370.0684,-9856.248,1628.054,-9726.172,-9940.43,-1491.2073,19051.566,-1168.2129,-1760.6934,-7466.657,1929.6633,-7329.1504,-7561.4746,-12479.709,28952.068,-12173.926,-12779.883,18916.83,260948.14,19747.217,18009.912,4249.626,33971.14,4577.6855,3870.0684,4796.6416,8156.356,5018.6035,4639.16,10504.014,49536.316,10844.238,10092.041,12910.751,789.9279,12985.986,12833.74,-8266.791,12649.538,-8054.297,-8499.805,5963.6753,60530.42,6343.213,5577.1484,-2169.625,2660.792,-2068.5547,-2304.7363,11332.299,1058.9961,11427.49,11263.965,11669.359,98808.984,12050.977,11046.826,18669.678,27892.266,18926.611,18355.762,9481.6875,653.67444,9564.014,9413.232,13077.071,1242.2192,13167.383,13011.279,438.2986,1621.9651,518.7988,325.78125,14207.494,8057.287,14361.426,14013.916,-659.4521,4414.3403,-544.2871,-830.5664,-9977.872,3284.251,-9863.135,-10110.156,-9395.197,2519.4346,-9279.883,-9520.508,-4364.3853,1269.606,-4233.008,-4448.1445,-8847.087,2106.572,-8747.461,-8970.3125,-10984.067,19034.54,-10777.783,-11283.057,9132.237,7626.1143,9285.303,8963.477,8365.752,57950.723,8720.557,7904.248,-9772.984,1905.4667,-9687.744,-9863.623,-8663.921,13910.181,-8424.707,-8901.123,14248.548,1020.3727,14335.596,14164.844,-2761.305,9307.601,-2582.08,-2995.0195,-7893.796,1136.5063,-7810.9863,-7997.5586,-6153.6763,21571.846,-5849.707,-6488.1836,-1065.9805,1070.6766,-956.2012,-1149.4629,-11231.562,18100.654,-10983.301,-11503.223,-2440.2454,26931.941,-2096.4355,-2767.7246,3573.4258,4085.356,3702.0996,3423.584,-7039.2334,3383.1482,-6879.0527,-7146.924,889.6748,40343.008,1200.5371,496.63086,-1649.6821,3389.9355,-1506.4941,-1792.1387,-10122.587,2461.9556,-9989.453,-10299.316,-8000.5483,10804.576,-7791.5527,-8222.9,13812.33,841.59735,13894.775,13752.734,9117.264,39242.812,9424.512,8756.104,11290.846,7799.101,11412.695,11076.66,-5407.342,6085.527,-5249.2676,-5578.418,11009.921,8778.014,11144.385,10808.203,-6414.83,1291.4902,-6305.078,-6509.033,8946.639,11116.033,9105.127,8723.145,-7137.587,5706.6196,-6988.1836,-7324.0234,11789.86,79852.21,12216.699,11238.965,420.34525,14004.639,628.4668,161.03516,11929.355,39597.758,12216.895,11534.863,-8991.491,1716.1807,-8875.391,-9117.725,5878.5005,2861.3516,5968.994,5737.5977,10971.991,33621.48,11279.736,10661.67,-12216.791,1559.5817,-12114.697,-12311.133,-10321.809,2236.0474,-10208.154,-10512.646,13841.938,9912.012,13989.502,13614.746,-16362.058,2119.6091,-16249.609,-16468.652,-4759.936,80909.91,-4225.049,-5252.7344,1,1
-15321.71,2619.7358,-15208.496,-15468.896,-19545.111,2468.0867,-19400.537,-19663.525,876.46674,5875.9136,1014.99023,689.84375,-4611.554,823.3137,-4518.506,-4697.8516,-3241.6426,65385.734,-2741.7969,-3689.502,-126.987366,3459.2058,-21.826172,-236.86523,1264.5525,32852.977,1510.9863,961.03516,-1502.0286,49171.508,-1115.3809,-1899.9512,-17201.15,9209.615,-17037.744,-17402.344,-20728.0,10079.892,-20518.799,-20900.44,-18710.975,4878.676,-18538.672,-18897.607,-139.9658,111819.7,457.71484,-696.1426,-4118.8335,7152.0137,-3956.787,-4269.4824,-20.738302,683.9256,43.603516,-95.166016,3379.6858,8533.646,3540.088,3228.955,-16663.031,4767.2476,-16534.13,-16827.93,-15461.437,589.081,-15397.9,-15531.201,2086.2554,54670.527,2482.5195,1630.7129,7308.242,9087.317,7489.8926,7100.635,-16262.334,32056.596,-16074.805,-18343.36,-16415.086,3637.0435,-16282.275,-16600.098,-17370.312,10511.406,-17188.379,-17616.162,4630.4473,541.73004,4705.0293,4545.703,-27572.975,6158.564,-27337.549,-27742.676,-18400.287,5468.864,-18256.592,-18583.203,1875.9567,611.1857,1964.1113,1791.5527,-3531.535,91721.77,-2993.9453,-4083.8867,-2446.336,34400.16,-2123.584,-2825.2441,13095.539,82030.664,13594.336,12554.736,-12500.929,21249.531,-12266.943,-12754.346,-15946.753,2631.957,-15805.957,-16122.07,-21088.758,12842.261,-20856.348,-21256.25,21180.959,76916.41,21661.377,20644.482,-13506.394,42900.375,-13210.4,-14038.379,-20537.994,28795.018,-20140.186,-20817.09,-22705.629,10789.591,-22484.13,-22959.229,-14122.21,5919.491,-13964.648,-14313.379,-4713.022,4210.746,-4584.619,-4849.2188,-6069.583,7999.355,-5902.832,-6253.5156,-8096.0674,11714.499,-7889.9414,-8293.066,-12246.971,16455.96,-11940.576,-12542.139,-19217.537,19311.533,-18955.615,-19509.473,-21738.67,7688.357,-21494.482,-21922.363,3831.5793,1990.8004,3933.9355,3710.9863,-14909.862,8140.5645,-14752.393,-15140.283,3825.5132,1426.7218,3906.4453,3688.5742,-19498.139,22294.137,-19184.717,-19726.22,-1563.5421,3477.8145,-1419.2383,-1689.8926,-19251.834,840.7976,-19182.422,-19338.965,-17026.408,15466.008,-16758.3,-17245.85,-25995.979,10451.39,-25821.143,-26194.727,-20484.414,2716.6838,-20370.605,-20660.01,-17506.89,5092.7173,-17311.23,-17664.648,-5844.061,7612.2144,-5602.1973,-6059.2285,-11951.315,3201.1355,-11811.328,-12103.467,-13178.048,10983.274,-12957.91,-13376.318,-21854.879,24352.96,-21508.74,-22157.91,-19038.21,16582.838,-18702.734,-19300.977,-25523.635,20195.922,-25296.582,-25830.518,3099.7466,570.6513,3171.4844,3020.4102,-20043.295,6115.863,-19849.219,-20220.215,-9488.256,42110.492,-9120.508,-9885.352,1,1
-15820.918,9575.257,-15623.926,-15999.414,-17108.184,9766.52,-16889.355,-17373.291,-11025.639,25072.275,-10670.117,-11362.256,-10198.403,11622.109,-9944.287,-10395.654,-6710.9683,23453.885,-6405.2246,-7082.4707,-4086.4937,1349.1328,-4018.75,-4148.7305,2147.6516,7077.5425,2277.832,2010.9375,-2441.8323,1443.3981,-2381.2988,-2523.1445,-5725.864,1170.604,-5636.328,-5784.1797,-5717.91,3246.7476,-5590.7715,-5841.0156,-6133.157,389.94113,-6050.342,-6192.627,-2769.6672,18717.25,-2541.1133,-3007.8125,-977.8843,98.42785,-950.92773,-1004.7363,2573.7002,902.1596,2625.4883,2520.752,-5272.929,266.30908,-5235.9375,-5324.8047,-7555.6973,286.44843,-7513.4766,-7597.168,-7852.1724,1177.9213,-7771.289,-7939.99,1155.9619,52.898262,1181.7383,1143.9941,-1167.8237,4970.1196,-1033.8379,-1342.8711,-3492.5745,3652.7056,-3327.8809,-3604.6875,-1078.8806,3648.0386,-958.6426,-1239.0625,-11450.641,655.19275,-11393.799,-11537.842,-11780.316,4297.2007,-11629.883,-11939.0625,-11689.223,834.52295,-11625.195,-11786.328,-12521.289,4383.5874,-12377.832,-12691.895,2695.3342,10650.695,2883.8867,2489.795,-11466.006,17749.592,-11258.74,-11726.807,-3376.3167,874.6685,-3320.4102,-3445.996,2271.1887,1172.4338,2344.7754,2171.9238,-997.1526,4120.7236,-900.97656,-1140.3809,-658.34033,671.6903,-587.20703,-722.4121,-3567.8438,598.3052,-3517.2852,-3627.539,-2499.0847,621.7827,-2427.4414,-2562.0117,-9489.631,2096.5295,-9404.736,-9610.986,-8645.95,3290.0977,-8532.52,-8764.893,-10041.276,1751.3324,-9960.742,-10158.154,-9852.481,9423.398,-9678.564,-10039.355,-11768.471,47231.855,-11286.133,-12037.842,-12578.999,19524.58,-12241.65,-12880.225,-3619.4653,5111.2793,-3433.252,-3752.295,412.72665,22429.082,665.6738,133.39844,1296.758,28392.49,1579.0527,965.2832,285.4759,1268.2897,367.62695,191.45508,3774.2651,2856.2485,3863.2812,3676.9043,3749.1575,6461.873,3882.8125,3594.2383,599.00885,1567.8247,675.97656,503.41797,-3502.8499,1906.6107,-3402.7344,-3596.6797,-4108.0034,974.9968,-4040.5273,-4183.9844,-4063.2444,2308.9211,-3957.2754,-4163.623,-4974.646,2903.4548,-4833.74,-5063.1836,-6800.1216,1613.3575,-6711.1816,-6894.5312,1363.1648,725.1082,1431.4453,1282.5195,1062.6292,573.29895,1110.4492,997.9004,-1389.2792,3416.8323,-1274.6582,-1511.9629,-5267.651,3518.7727,-5159.4727,-5413.2324,2709.2148,1323.6954,2801.416,2626.6113,-7500.4204,61770.004,-7028.125,-7935.3027,-9594.279,3223.0547,-9483.936,-9762.793,-15877.552,2119.608,-15778.809,-15986.23,-2858.2456,3391.1086,-2744.1406,-3001.6113,-4385.5,8292.599,-4232.08,-4575.0977,-5189.0693,17983.438,-4962.793,-5465.1855,1,1
-9602.749,7141.4873,-9449.951,-9780.908,-16016.474,14365.078,-15841.162,-16248.633,-10660.566,4050.455,-10495.02,-10923.486,-5473.955,4318.3535,-5311.2305,-5659.912,-20052.72,27426.469,-19763.428,-20367.09,10949.469,80918.27,11415.43,10417.334,11195.37,375.57343,11240.967,11144.189,9927.526,727.0023,10005.029,9850.098,11253.474,366.41174,11302.783,11190.967,16632.3,3259.3442,16769.678,16499.56,288.269,5152.1416,418.35938,121.82617,15611.638,11350.535,15812.695,15408.301,9393.379,649.74146,9446.973,9319.971,7142.3125,12213.413,7358.008,6927.6855,10689.996,1779.3097,10807.08,10611.426,1302.8732,21921.283,1594.873,1027.9785,10973.127,9763.584,11155.615,10761.914,11042.697,3603.5334,11150.391,10932.178,1913.2942,8416.526,2097.461,1750.6348,7782.389,9420.211,7940.5273,7594.2383,-25499.08,22667.162,-25189.404,-25781.738,-20792.41,46339.758,-20367.188,-21184.277,-26326.045,20068.357,-26067.871,-26603.076,-18958.367,6334.0854,-18778.418,-19137.451,-17318.09,2865.4297,-17160.547,-17480.469,-24836.37,8278.664,-24652.197,-25051.807,12539.7295,4023.4238,12658.301,12424.023,13178.573,13799.954,13396.68,12964.0625,5362.225,20817.84,5617.676,5094.58,7450.5386,6754.259,7571.631,7239.6973,-4906.008,20545.24,-4622.412,-5158.9355,13101.478,5441.6616,13249.854,12953.32,-15269.0625,583.622,-15205.615,-15337.793,-8501.228,4523.18,-8378.076,-8709.229,-20662.164,54779.504,-20218.945,-21133.643,-9580.122,10017.411,-9356.934,-9808.496,-8227.024,79648.586,-7594.7754,-8706.836,-12795.747,26088.123,-12469.385,-13104.395,-15838.866,163187.2,-15323.877,-16452.49,8734.164,6914.8413,8891.064,8560.449,3648.8708,28213.883,3966.6992,3298.584,-3823.658,30998.662,-3502.4414,-4169.4824,3173.887,30189.848,3500.7812,2812.1582,14558.935,3387.1514,14668.506,14441.162,12622.483,7121.6797,12946.045,12517.236,1369.8151,5901.7095,1489.7949,1145.3125,6794.719,11838.266,7010.547,6573.633,12339.377,8250.903,12519.189,12144.678,9514.92,5629.4033,9652.393,9350.244,7299.1323,8916.008,7512.3047,7080.2246,9715.983,5991.6885,9856.689,9547.705,12401.998,7250.093,12579.932,12209.277,9808.543,4435.9663,9930.518,9662.793,2751.1958,26383.182,3060.254,2411.084,-3684.9578,29875.584,-3369.6777,-4021.1914,-4497.6113,13112.766,-4289.795,-4744.336,14668.666,5571.463,14842.871,14497.559,1369.1384,5990.8555,1537.3047,1191.1621,16945.01,361.51108,17016.504,16869.922,17108.018,3847.996,17247.412,16961.035,17363.023,3061.878,17480.127,17228.467,-14834.914,4824.4536,-14661.572,-15001.025,1,1
256.31763,2696.428,352.97852,90.2832,-7848.609,4706.7856,-7706.787,-8073.9746,207.5278,2799.1223,306.15234,31.396484,-16081.757,355.28964,-16020.85,-16155.859,-3957.9985,1307.4553,-3890.4297,-4056.2988,-1116.6295,175.14131,-1085.4004,-1150.2441,-3221.3823,47.9848,-3199.0234,-3240.5762,-1917.8152,369.92294,-1837.1582,-1966.5039,-2569.0486,97.30884,-2542.92,-2601.8066,-12018.061,676.84735,-11958.203,-12085.791,-5086.2974,9012.643,-4889.16,-5221.0938,6507.6465,8143.721,6654.004,6335.0586,-7351.1406,4359.853,-7234.4727,-7484.4727,2073.99,331.9072,2116.9434,2027.3926,-788.105,343.24466,-746.43555,-826.3672,-4482.227,1655.3103,-4382.2266,-4576.2207,1923.3293,951.3881,1987.2559,1853.5645,-857.7115,6.481285,-849.5117,-865.52734,223.83368,714.8876,268.65234,127.29492,-3409.037,1428.9579,-3328.7598,-3481.543,2260.532,1003.9248,2321.7773,2155.8594,986.0046,829.7938,1051.5137,886.37695,-9167.424,2380.8872,-9078.271,-9315.088,-16626.934,614.46185,-16548.682,-16717.627,-9410.928,2350.3875,-9322.168,-9557.031,-9067.806,915.2272,-8966.162,-9136.572,1229.3845,185.94855,1261.2793,1193.2617,-523.20294,401.77777,-474.3164,-579.1504,-3879.0356,2262.0942,-3773.2422,-3994.7754,438.41788,917.7337,510.54688,369.04297,-1100.3324,488.72662,-1043.8965,-1174.4141,2106.1616,241.07431,2153.125,2054.6387,-4159.9375,658.58673,-4105.3223,-4208.496,-16723.824,71459.89,-16250.83,-17226.465,3271.2937,424.75775,3328.7598,3201.5625,-11559.76,2678.0503,-11421.729,-11674.268,-19154.984,64298.61,-18728.76,-19612.06,150.10472,2752.4238,247.36328,-17.626953,-8600.417,4894.093,-8459.912,-8832.8125,2417.6284,848.2861,2474.5605,2359.375,1404.0312,884.3823,1488.5254,1347.5586,-2571.9355,827.1956,-2479.2969,-2642.6758,-7338.479,893.98096,-7283.838,-7416.1133,7107.187,17221.486,7344.629,6882.0312,-3232.0447,625.1805,-3167.0898,-3273.0957,-586.4387,657.0044,-535.30273,-640.03906,1755.3206,73.59995,1778.2227,1724.7559,-1640.328,248.4426,-1590.7715,-1678.7109,3268.24,121.66964,3303.0273,3232.8125,-1685.643,336.66556,-1634.7656,-1752.002,-406132.97,3714.3516,-406026.06,-406353.16,-151.87242,282.85593,-104.98047,-192.62695,96.12483,334.2301,153.85742,51.51367,-9582.759,8010.277,-9407.373,-9725.146,1749.0408,397.67038,1796.2891,1700.0,-5981.965,3570.977,-5870.9473,-6075.342,-4283.5576,2090.729,-4169.824,-4382.129,-2100.433,2385.9448,-2000.8789,-2247.168,-2846.698,1720.0841,-2754.4922,-2954.1504,-3368.9824,1353.0933,-3264.8926,-3459.4727,2516.89,520.7744,2570.2148,2441.1133,-462.0818,516.8237,-408.20312,-553.8086,1,1
7439.3467,17707.182,7683.9844,7200.7812,-4663.9854,3307.246,-4520.8496,-4761.7676,5646.2417,54215.816,6017.2363,5212.0605,-5815.378,10258.133,-5603.2227,-6055.42,20112.814,519465.38,20988.086,18283.398,12102.44,12887.137,12382.031,11933.496,10250.582,11417.163,10447.266,10067.871,7177.376,306.14813,7226.758,7131.1035,4262.5366,459.1344,4314.209,4212.9395,9210.149,6248.2983,9373.633,9067.871,634.4478,2492.7456,771.24023,552.7344,9759.448,127.998085,9787.695,9735.156,8455.716,1947.9742,8550.684,8384.229,6390.441,3160.3916,6509.8145,6297.754,3159.827,5011.423,3316.9922,3031.0547,5538.07,300.35785,5604.199,5486.1816,-2293.7378,8886.484,-2074.17,-2444.1895,7962.111,65.07764,7992.627,7938.2324,8433.729,5400.2754,8580.469,8301.172,-2708.5405,1997.8253,-2619.9707,-2810.1074,8527.397,6772.569,8682.861,8373.975,-477.4426,38995.895,-87.5,-773.8281,2608.0303,30204.137,2918.4082,2284.6191,-787.3476,24095.822,-468.01758,-1000.29297,4405.7437,16245.122,4635.547,4177.539,-8400.518,8722.51,-8188.8184,-8609.961,14863.081,2763.4648,14987.842,14773.486,15060.206,9013.83,15256.396,14896.338,10326.214,1521.7418,10413.33,10249.268,-1578.3994,45204.047,-1195.4102,-1915.6738,6329.965,10448.68,6521.533,6131.006,9887.117,4047.9019,10080.273,9790.332,9609.693,138.37582,9660.303,9580.176,8565.033,675.1087,8645.947,8474.414,4460.0327,9131.297,4628.2227,4269.1406,9454.209,4365.8384,9645.02,9353.564,6592.8765,17521.99,6829.883,6319.1406,-7546.8833,1196.0438,-7443.0664,-7632.373,-7974.1694,2482.6714,-7840.674,-8093.3594,10420.884,730.61975,10502.295,10369.043,9309.618,139.61206,9365.869,9268.018,5447.4,291.08502,5527.4414,5391.6016,-2541.7642,1591.6733,-2453.8574,-2638.1348,10502.484,1210.3833,10575.684,10439.99,-4064.648,128.21822,-4033.1543,-4098.584,10044.82,2471.2974,10159.326,9959.473,6945.1475,1096.5142,7020.215,6877.0996,8634.725,2779.524,8756.396,8541.162,2417.5083,168569.89,3221.045,1754.541,3089.1724,1343.5137,3178.711,2987.4512,8273.275,6627.648,8438.379,8096.338,6437.9214,946.88434,6501.758,6362.744,4864.5425,1178.4825,4978.5645,4786.328,10616.435,312.03958,10695.459,10561.035,7645.5073,434.2028,7726.6113,7586.328,-6524.0093,175.09695,-6478.369,-6563.5254,10430.256,2838.1675,10574.023,10305.762,4931.635,463.79575,5001.66,4863.2324,3281.267,35268.67,3715.088,3031.0547,4651.682,556.05725,4745.6055,4590.918,9592.842,244.89833,9665.283,9539.648,-1538.3965,15697.335,-1258.2031,-1770.459,1,1
-19529.762,1524.8658,-19439.697,-19633.594,-3385.202,6617.012,-3217.2852,-3586.67,-16724.791,8521.327,-16570.557,-16957.031,-33636.695,24131.848,-33395.508,-34072.95,643.5017,24764.756,926.31836,364.9414,-12608.319,87318.88,-12108.887,-13187.793,-25767.836,171549.9,-25090.967,-26522.021,-1715.1904,11316.516,-1519.5801,-1927.3926,-2560.2625,452.74243,-2498.0469,-2622.9492,-5421.1694,102051.88,-4885.1562,-6067.334,-5436.648,2624.222,-5330.3223,-5646.924,2187.421,7515.3105,2336.4258,2006.3965,4400.271,10399.59,4565.1367,4188.7207,295.18124,13029.895,501.17188,69.384766,4616.4077,16808.672,4841.4062,4346.826,-7086.0405,111515.734,-6508.496,-7706.299,617.854,11682.391,822.0703,390.33203,-996.7713,61140.78,-598.2422,-1472.9004,-1700.57,1788.5398,-1612.4023,-1841.1133,-15579.687,17303.674,-15277.49,-15731.104,-16267.196,24372.49,-15820.3125,-16486.035,-8393.527,10191.585,-8199.561,-8556.787,-1360.7489,3183.0205,-1224.5605,-1495.9961,-18343.057,18108.523,-18111.475,-18590.283,-13430.353,69967.8,-12801.318,-13802.539,-4075.5198,210733.73,-3312.2559,-4903.6133,3970.7468,13421.26,4174.951,3734.1797,-10441.707,225057.6,-9849.951,-11593.604,4636.214,11637.474,4841.211,4412.0605,-11609.593,82453.04,-11097.705,-12105.273,3195.0642,16220.058,3454.7363,2930.42,-12678.352,22699.445,-12290.088,-13014.0625,428.9879,24955.63,713.3789,124.6582,-2298.4094,6816.743,-2107.3242,-2458.6914,4538.042,18000.045,4800.9277,4256.3965,2824.0762,43798.82,3199.463,2413.6719,-419424.75,6924.619,-419212.5,-419641.6,-15550.471,24504.883,-15256.445,-15883.105,-23616.994,554188.9,-22405.03,-25064.453,1061.4025,32933.645,1380.7617,726.0742,-8271.533,15825.989,-7958.838,-8483.35,5736.338,5932.3857,5929.3945,5529.9805,-4305.2607,257846.22,-3522.8027,-5297.705,-9383.109,438.45093,-9326.27,-9458.74,-6091.9233,22802.162,-5805.5176,-6396.1426,-387.46152,30656.736,-78.17383,-731.9336,2571.546,557.58765,2651.8555,2489.795,-3629.4602,78225.27,-3142.0898,-4156.1035,1407.2969,15067.452,1642.0898,1146.582,5001.771,28181.912,5330.127,4657.5195,-1257.3007,5488.455,-1078.6621,-1445.2148,2408.324,32611.605,2755.42,2057.7148,-9169.484,3684.5808,-9039.941,-9298.926,1251.1604,35613.227,1607.0801,861.9629,-8759.773,60951.76,-8305.713,-9252.881,-6897.4307,6248.322,-6728.5156,-7042.8223,-14269.039,30029.014,-13898.584,-14555.127,1269.7183,8307.977,1454.1504,1077.1484,-14430.368,184717.83,-13702.393,-15307.666,-2177.6838,170333.22,-1456.3965,-2964.3066,-2567.6648,254358.02,-1677.6367,-3518.0176,1944.9058,25259.54,2262.3535,1606.6406,1,1
3883.8306,90543.13,4699.414,3447.8516,-12874.671,54548.926,-12268.213,-13272.607,-4355.3413,75158.66,-3748.3398,-4875.1953,-6624.675,66142.59,-5584.033,-7078.2227,4445.4556,542166.44,5820.5566,3083.9355,6734.0034,370733.53,7686.133,5577.002,1297.4457,27876.396,1521.3867,835.5957,3157.2805,239488.64,3857.4219,2232.4707,4095.61,35369.434,4312.3535,3637.1582,11617.695,48960.89,11958.398,11175.781,-5329.719,14414.452,-5056.006,-5617.041,16176.46,635289.6,17273.145,14523.145,9560.542,129344.34,10033.838,8823.193,7583.4883,4524.235,7723.7793,7411.865,-5895.9653,19827.541,-5528.2227,-6188.7207,11306.603,3389.2903,11459.473,11166.602,-15312.515,436739.56,-14484.814,-16731.25,5595.968,384873.72,6495.9473,4325.293,11316.901,111517.12,11758.008,10572.51,-6424.45,9379.288,-6170.801,-6734.619,742.1637,13010.447,953.3203,466.60156,3536.3074,3843.0925,3774.463,3296.7285,-4777.7363,13670.693,-4437.207,-5044.824,-10183.929,141227.98,-9376.318,-10788.574,14279.565,18039.766,14628.955,13948.584,-15764.127,133651.98,-15004.932,-16447.754,14875.236,353073.2,15660.742,13590.186,3278.291,2968.3289,3428.4668,3135.9863,434.94962,5948.442,587.8418,130.95703,-7822.486,68008.47,-7413.916,-8325.146,5996.1978,73813.2,6441.992,5413.5254,8059.4316,191585.4,8776.953,7191.6504,3148.6035,498679.44,4129.9316,1677.832,-14970.1,10137.226,-14621.924,-15224.365,5864.529,245415.1,6707.4707,4928.9062,-7212.2207,19576.146,-6862.842,-7602.1973,486.1281,873673.3,1973.1445,-1219.6289,-5873.9355,95952.43,-5094.2383,-6290.625,-11001.237,235872.9,-8712.793,-11905.664,8113.384,164732.73,8667.139,7265.8203,4752.1055,173238.22,5199.121,3687.207,9182.65,21594.312,9439.014,8819.775,-2420.5808,4358573.5,185.20508,-7003.8574,4975.3335,656583.56,5954.883,3101.1719,3485.064,64584.746,3856.3965,2972.3145,5683.893,15463.25,5832.373,5378.369,-1347.941,145655.34,-667.77344,-2051.6602,6401.043,26472.408,6600.1953,5962.549,7781.467,135688.72,8115.4297,6745.459,11008.576,37741.906,11321.094,10553.125,8039.836,45963.316,8312.939,7473.877,14910.948,1080589.8,16265.43,12623.535,-391.41455,1135030.4,1749.0723,-2040.3809,2800.2998,3405.0908,2993.7012,2664.5508,1353.5242,6616.1777,1557.5684,1164.6484,10481.932,734597.3,11670.85,8687.598,594.78394,402443.66,1823.4375,-485.79102,-5561.8257,315381.66,-4732.324,-6768.3594,8429.729,187534.97,9083.105,7500.9277,12342.064,40321.652,12665.967,11928.857,8923.215,57876.13,9221.924,8195.996,14432.502,2299799.8,16340.576,10973.389,1,1
-4186.5654,8177.915,-3986.7676,-4441.26,-22158.133,10757.367,-21880.664,-22420.508,2386.832,27833.492,2730.957,2025.2441,-3739.4756,8315.693,-3569.4336,-3987.5977,9935.491,18897.395,10278.467,9671.289,14245.455,2077.15,14367.529,14147.559,12768.427,316.10205,12828.467,12706.299,1773.9338,3532.9614,1952.0996,1660.0098,-7592.9287,11420.392,-7368.506,-7791.6504,-1011.17786,10550.42,-796.1426,-1224.4141,2256.766,3830.9014,2406.836,2060.205,10305.046,229.72408,10346.24,10257.324,12086.98,2340.3,12202.197,11998.389,12178.19,1353.9832,12297.021,12085.352,-892.29443,1733.1211,-785.30273,-1003.22266,-1114.5485,8761.003,-892.48047,-1345.3125,-12786.014,23886.387,-12402.783,-13057.666,-2191.9,3652.7063,-2033.5938,-2319.8242,9990.128,3858.5894,10168.75,9831.445,-11520.973,20988.61,-11154.932,-11762.842,6246.8745,9489.887,6503.467,6061.8164,-11681.34,7857.5127,-11450.732,-11876.025,6238.1226,7990.2715,6510.3516,6026.9043,12499.348,9219.913,12741.748,12254.492,9023.56,3559.4192,9260.547,8861.279,10898.623,7230.1465,11107.178,10614.941,7324.5713,1337.081,7436.963,7221.4355,9916.322,675.8419,9997.217,9837.402,12265.004,2451.023,12467.822,12136.865,6862.7627,11751.475,7092.334,6625.586,3802.3088,1416.2493,3972.168,3715.1855,-15520.01,1916.3126,-15392.1875,-15654.932,-9735.4795,12523.187,-9470.508,-9976.953,-5525.903,20609.932,-5200.7812,-5862.744,10213.687,7638.6343,10443.213,10027.051,10517.304,22251.246,10849.023,10171.826,5602.251,35859.78,6032.91,5259.912,4063.7,21185.023,4375.7324,3715.2832,-11168.769,36184.855,-10763.721,-11559.326,-10208.452,23943.754,-9893.457,-10454.98,4280.746,3389.5662,4416.504,4118.213,11688.3955,1987.5631,11794.434,11524.023,11765.233,1855.6963,11873.242,11631.006,11238.745,2137.3225,11355.42,11125.244,-5374.3374,70492.15,-5016.748,-5845.6055,11455.505,2358.4944,11590.82,11341.064,11487.545,2159.5662,11637.5,11364.258,5857.3887,9894.417,6089.8438,5644.043,-1135.2157,9123.41,-860.35156,-1326.8555,7158.4155,1366.8478,7271.631,7041.4062,7737.5425,4016.435,7947.8516,7553.662,12635.682,1622.5658,12762.061,12530.127,12830.481,2217.042,12932.324,12677.881,4487.2725,9143.427,4730.615,4303.125,-232.25705,1633.4509,-120.21484,-377.29492,6255.092,22202.594,6504.9805,6007.8125,3228.83,49977.703,3721.9238,2797.998,-13245.208,78815.945,-12707.08,-13797.314,-21436.955,24515.035,-21146.582,-21760.645,9030.713,4916.961,9215.088,8868.945,-12069.256,27080.951,-11660.84,-12333.105,225.75043,47429.043,671.4844,-187.74414,1,1
-5530.844,25262.37,-5289.4043,-5920.459,305.17868,6570.8965,460.00977,88.33008,-7797.225,40120.246,-7354.785,-8199.512,-18733.736,34478.223,-18473.682,-19209.424,6795.0293,3246.7805,6928.3203,6631.299,14521.217,23338.998,14794.238,14261.133,867.11487,1842.3842,985.69336,801.3672,-1123.0632,32559.496,-813.76953,-1444.5312,2316.1978,18067.709,2566.3574,2112.6953,5546.09,10203.255,5779.883,5329.248,1138.0411,5250.5137,1305.6641,995.5078,9609.354,22764.943,9881.25,9356.055,5322.4097,1601.5583,5401.3184,5246.045,4449.1787,9745.759,4644.385,4258.6914,4499.484,4310.0747,4633.008,4382.7637,3013.627,12310.677,3243.4082,2815.6738,5710.1978,3183.7588,5838.623,5607.422,3309.346,2020.9333,3401.3184,3226.416,11034.721,1530.8964,11124.072,10945.215,2261.2593,4782.571,2429.6875,2136.1816,5620.037,12414.973,5841.211,5354.492,5264.174,238.58646,5325.1953,5206.1035,6475.7754,9343.699,6674.5117,6234.619,5863.8037,3730.448,6019.58,5713.672,-3848.6912,29130.348,-3460.498,-4196.3867,-1235.7712,2602.796,-1127.6367,-1396.1426,2308.0195,4636.8516,2443.5059,2156.6895,5457.1187,564.32513,5520.3613,5398.3887,-57.51539,11802.928,166.74805,-277.5879,4536.6084,5149.512,4693.164,4395.801,4668.4634,8731.7,4867.1875,4475.4395,6683.9497,6960.9976,6872.8027,6525.6836,805.58795,10345.065,982.91016,609.0332,119.731476,49538.61,549.8535,-270.45898,-3773.8457,11637.971,-3506.6895,-4013.916,1386.1946,18603.71,1671.2402,1147.8027,-466.92102,15869.268,-249.16992,-702.53906,-18631.365,16168.876,-18244.092,-18990.04,-21665.213,264965.7,-20469.434,-22505.762,5202.565,4463.0317,5349.658,5054.883,3695.0505,10424.325,3896.582,3514.746,3239.669,24062.408,3550.293,2985.4004,1794.148,8059.781,1996.9727,1642.4805,6605.3506,1878.6829,6679.7363,6524.6094,5381.2056,4121.872,5506.25,5267.1387,4298.9756,11268.714,4510.0586,4108.4473,-3047.3845,2137.1995,-2955.9082,-3136.963,1834.1344,7100.3555,1971.1914,1662.6953,3789.9333,7711.0386,3968.4082,3637.207,-1062.6615,8503.4,-826.80664,-1231.2988,3419.3115,11382.783,3650.3418,3235.1074,4365.361,3656.4783,4508.1055,4249.463,-39.431053,6996.8486,118.99414,-193.21289,3091.8308,10593.764,3325.1953,2904.1016,3778.4817,17331.924,4047.0215,3558.4473,-2229.2715,8432.652,-2072.705,-2397.5098,1616.0343,8582.097,1809.1797,1430.5664,1652.9453,12630.014,1868.5547,1428.8574,328.17706,17611.281,620.7031,97.46094,978.36304,5594.72,1168.8965,850.0,5588.7627,9050.224,5792.2363,5425.9766,913.8099,4067.1611,1031.6895,770.06836,1,1
-1784.8276,2840.747,-1692.0898,-1928.125,3588.3855,13607.112,3789.9414,3333.6914,1928.5753,391.2146,1995.9473,1853.3203,577.60034,1108.6382,671.58203,491.06445,6360.811,3487.37,6472.949,6215.918,965.3863,684.11237,1016.94336,914.30664,5579.809,4775.0674,5727.002,5444.6777,-10907.815,1482.1183,-10830.615,-10993.701,3801.208,3991.6433,3949.2676,3687.8906,3960.9531,13335.191,4233.496,3746.4355,8503.733,4824.7275,8655.713,8364.648,2202.3748,665.50903,2248.1445,2157.2266,2656.1929,1013.2619,2695.4102,2584.1797,-974.5398,12752.398,-773.4863,-1181.7383,9280.412,4495.832,9418.555,9147.461,8726.285,5238.2437,8900.537,8557.471,6046.521,1136.6316,6137.451,5964.0137,-1172.2875,386.6333,-1135.8887,-1212.9395,1817.2535,19508.504,2044.0918,1508.4961,-362.9735,1288.0215,-294.23828,-457.56836,5503.5327,708.076,5566.0645,5392.9688,6833.485,4486.2275,6966.211,6684.961,9614.653,4356.093,9749.951,9453.955,-954.2242,40004.938,-619.7754,-1363.5742,5544.29,6844.5474,5677.9297,5331.3965,10480.487,202.35904,10526.123,10426.27,4674.21,497.8729,4715.674,4622.6074,8132.1465,2342.7612,8230.957,8026.758,572.95435,37468.8,914.30664,214.59961,-55.46644,5998.0156,107.32422,-192.1875,-3059.0159,518.8343,-2950.4883,-3176.9531,7010.908,1359.2782,7093.994,6908.3984,4205.3086,2171.5042,4301.9043,4105.8105,5696.672,1874.2527,5797.2656,5548.4375,12824.693,3015.7688,12944.238,12611.768,3430.9744,505.31207,3505.5176,3355.2246,5674.208,4084.09,5803.6133,5490.039,-23456.627,14633.935,-23245.898,-23679.492,2299.187,2965.715,2385.1074,2117.7246,1175.6226,137.24788,1209.0332,1135.3027,4307.501,3908.199,4478.0273,4174.8047,6281.5845,397.30948,6396.1914,6219.1406,3389.8193,509.1852,3503.2715,3327.4414,19922.758,21165.941,20169.092,19674.072,-4350.7227,50125.863,-3937.5977,-4758.1543,6252.2393,149.01056,6288.1836,6214.5996,-2939.5923,1004.31,-2872.3633,-3005.2734,6077.6646,3376.2234,6225.6836,5924.8535,4729.5483,6787.9165,4893.457,4559.131,7328.139,594.2546,7444.873,7235.742,492.63303,1922.2676,627.7344,373.58398,-1030.1453,288.0461,-970.3125,-1079.3945,3296.0364,947.71344,3385.7422,3200.9277,5832.92,992.6588,5916.797,5737.4023,5394.6577,1121.0857,5518.799,5303.467,3606.5557,1539.8485,3703.8086,3528.4668,9344.458,2484.5376,9502.246,9179.053,2970.763,3293.091,3101.9043,2820.459,-11613.282,5751.8213,-11396.68,-11790.332,441.14212,743.7214,562.0117,326.12305,1515.7825,14282.627,1706.8848,1232.2754,8278.132,4157.2207,8547.266,7915.7227,1,1
-3190.5923,16090.175,-3006.836,-3493.6523,1436.2421,46037.18,1774.1699,1009.5703,-2406.558,30513.768,-2166.748,-2806.2012,3442.0662,3229.041,3572.5098,3311.5234,5582.032,8946.174,5740.7227,5399.756,-1021.2755,162.57101,-978.9551,-1049.4141,-333.17828,46302.07,34.91211,-688.3789,-791.11896,5468.038,-663.0371,-930.0293,4924.883,5373.804,5054.4434,4808.301,-977.82996,4550.685,-859.7656,-1098.7793,215.39177,17023.996,443.35938,10.546875,-592.04254,7924.048,-452.05078,-759.81445,1234.3966,61961.516,1646.2402,801.66016,1649.0991,1510.2599,1714.0137,1580.957,-765.2075,3321.757,-656.00586,-876.5137,-2606.081,3328.969,-2510.8887,-2714.2578,-985.06195,7611.807,-823.9746,-1122.3145,-2785.1482,24780.945,-2502.0996,-3051.9043,3502.2654,13756.075,3697.998,3295.3125,4712.35,5778.983,4851.465,4576.953,705.55054,46652.258,1062.5977,308.6914,4887.8926,4361.4326,5022.51,4760.9863,1367.5483,27741.068,1643.2617,1059.9609,-177.96884,3064.1628,-60.498047,-293.5547,1446.4631,23734.613,1706.2988,1143.2617,4879.9575,1941.934,4988.379,4772.0703,-4192.2007,26376.818,-3931.3965,-4543.408,2230.486,18250.855,2466.6016,2000.6348,-1760.0651,19292.018,-1532.373,-2018.8965,-314.4405,4639.8135,-202.09961,-444.48242,44.37632,6944.833,190.23438,-115.82031,333.37845,762.3822,409.27734,273.0957,-4176.369,7216.45,-3960.1562,-4283.4473,-18545.746,19249.111,-18281.396,-18823.877,-266.81165,15596.496,-67.28516,-521.8262,-1865.0021,29860.342,-1590.4785,-2183.496,-1322.0458,123633.25,-707.3242,-1947.8516,333.2103,21063.967,570.5078,22.216797,2108.1318,41750.098,2433.9844,1687.0117,-370.4883,438.87558,-308.88672,-420.21484,131.78065,29019.773,455.7129,-198.38867,-2585.2314,7883.292,-2433.6914,-2760.254,4259.597,2202.0498,4364.1113,4162.5977,977.15845,17948.516,1198.5352,736.18164,-1810.1146,19737.834,-1563.8672,-2054.7363,111.02336,4121.2266,230.0293,0.48828125,2731.6704,6703.963,2876.2207,2598.2422,645.8509,3194.7642,750.92773,549.6582,4560.379,2711.3506,4658.008,4471.3867,-3768.287,8790.505,-3591.8457,-3923.0957,-5949.977,145.79898,-5909.4727,-5987.1094,-11852.782,6463.393,-11702.49,-11995.947,-1990.2251,93793.625,-1478.125,-2535.5469,-1330.3885,1059.2097,-1256.0547,-1406.0059,1723.9655,16346.705,1955.1758,1511.5234,-1729.436,2288.5923,-1635.791,-1808.1055,-3550.735,8920.431,-3332.08,-3723.8281,1201.6586,1110.622,1295.166,1121.9727,1020.6,16240.362,1254.541,758.0078,3504.7837,3747.449,3622.2656,3399.3652,-1186.0465,12651.873,-985.64453,-1376.6602,2929.0393,5966.7646,3062.0117,2774.0723,1,1
2027.0267,2740.0117,2129.3457,1893.2617,-12046.931,7474.61,-11835.01,-12346.289,-27271.998,54394.035,-26779.688,-28628.076,-3881.9734,3868.4553,-3752.539,-4043.6035,-4601.271,1768.3005,-4501.3184,-4712.9395,-19596.03,283143.66,-18975.83,-20666.7,-16590.39,24634.223,-16391.846,-16932.715,-16416.74,94053.09,-15917.676,-17035.45,-3054.1438,679.6277,-2981.5918,-3091.3086,-6228.752,37519.336,-5848.828,-6755.615,-3458.9265,85814.93,-2980.713,-4020.752,344.52383,921.8767,402.68555,287.59766,-2219.7737,77.912796,-2193.1152,-2248.584,-825.3166,30885.17,-503.75977,-1121.1426,197.76767,167.77974,237.8418,166.01562,822.76685,12729.519,1035.9863,592.041,3757.479,900.3754,3839.1113,3699.3652,3201.8345,1217.439,3294.4824,3157.0312,-7282.5166,6237.515,-7067.09,-7405.5176,-20235.53,133537.23,-19645.264,-20927.002,-30350.795,1238.2224,-30256.152,-30575.0,-5020.8384,4686.834,-4844.1895,-5130.176,-15514.225,50601.453,-15030.713,-15900.244,-1186.018,65751.21,-672.9004,-1570.2148,-21.122856,1096.4849,104.98047,-103.07617,980.47894,6528.726,1144.4824,828.2715,-15426.035,63660.14,-15013.037,-15925.83,-132.83025,7040.9727,37.695312,-263.76953,-14640.995,72274.04,-14176.5625,-15239.355,1497.8389,1402.5771,1596.875,1411.2793,-417.29184,3844.6934,-236.8164,-586.2793,2491.2644,8678.905,2689.3555,2324.414,979.60046,401.66147,1049.2188,944.18945,-4111.135,9190.426,-3897.3145,-4287.549,-11069.416,253428.12,-10240.82,-12002.832,2990.8408,866.4391,3073.6328,2897.6074,-5594.7637,19897.092,-5107.373,-5815.8203,-19815.363,12138.613,-19538.574,-20016.016,-10708.453,5717.01,-10448.193,-10884.375,-17611.914,36690.703,-17347.217,-18145.996,-745.2277,454.6519,-681.4453,-825.0488,1385.0848,248.31148,1437.9883,1325.4883,-212.36261,2463.1692,-96.33789,-329.0039,-8319.254,28046.332,-8137.0605,-8799.902,-763.8924,168.92702,-735.5957,-814.35547,-746.5217,1055.1908,-666.21094,-814.209,1126.6698,262.31952,1181.4941,1083.1543,2129.828,1755.4467,2232.8125,2047.9492,3358.295,117.059875,3397.1191,3313.2812,-2885.637,56773.957,-2450.7812,-3340.4785,2230.6707,162.87263,2278.1738,2173.5352,-2765.026,9531.646,-2602.539,-2984.961,2736.7683,170.2245,2788.916,2685.3516,-2133.6772,740.0692,-2053.8574,-2221.1914,-5041.627,4394.434,-4899.414,-5246.9727,-4158.7153,3515.3496,-4071.1426,-4282.422,-26699.113,274641.38,-26076.465,-27827.54,-4965.548,198637.16,-4161.035,-5767.871,-4076.1409,747.89404,-3986.963,-4145.3125,-1740.2172,84533.734,-1210.498,-2322.0215,2611.4612,658.0453,2680.2734,2548.9746,-25957.484,72098.18,-25496.875,-26508.545,1,1
-17693.088,36239.34,-17343.799,-18090.38,-13699.572,8609.223,-13525.537,-13936.865,-16906.033,16087.298,-16707.861,-17384.814,-25549.924,66653.57,-24763.037,-26041.65,-10435.221,7642.1147,-10275.781,-10623.926,-11400.013,10380.014,-11212.793,-11584.424,-10657.964,9958.739,-10441.211,-10815.527,-7211.4263,2936.1357,-7081.836,-7356.543,-13810.29,1039.4226,-13671.826,-13935.107,-15479.618,6942.2217,-15246.24,-15700.928,-8986.619,13652.3125,-8767.725,-9245.459,-11119.047,1389.5094,-11045.898,-11182.227,-9590.084,2097.8171,-9506.348,-9682.227,-14552.827,8657.188,-14372.363,-14734.424,-11282.772,446.891,-11219.482,-11324.609,-7404.577,5845.2935,-7205.908,-7603.5645,-18964.367,1138.795,-18878.857,-19043.945,-8657.995,413.68173,-8616.748,-8706.152,-9130.532,1586.9993,-9047.607,-9241.699,-6952.2344,8629.02,-6778.3203,-7147.461,-13412.634,15025.816,-13178.613,-13664.795,-8087.391,6719.4487,-7928.9062,-8283.594,-17107.219,6658.5645,-16940.283,-17389.941,-14252.83,33799.805,-13915.576,-14658.789,-8928.461,6371.227,-8786.67,-9242.041,-7600.442,6123.4663,-7396.7773,-7833.1543,-9419.665,2955.5383,-9324.463,-9521.143,-14057.395,16704.096,-13797.51,-14257.666,-12182.191,697.74945,-12092.432,-12289.355,-8259.532,3880.3005,-8135.8887,-8401.855,-5955.273,4170.363,-5741.9434,-6195.459,-16542.785,1889.1029,-16438.135,-16677.246,-9570.607,1574.1016,-9486.914,-9658.203,-7083.819,39796.555,-6598.242,-7466.4062,45.141228,8554.726,295.1172,-231.9336,-5250.4497,843.4845,-5094.58,-5345.117,-25854.746,32027.596,-25447.412,-26261.816,-8419.3,20153.299,-8204.004,-8821.924,-13378.599,13770.166,-13188.525,-13705.469,-7661.946,3752.0027,-7545.215,-7791.211,-6481.4937,357.23938,-6424.463,-6558.545,-11073.019,1243.5872,-10997.852,-11171.68,-12908.026,1820.7821,-12808.398,-13017.432,-6155.632,262.49316,-6123.535,-6202.3926,-12068.483,3715.1917,-11949.121,-12181.885,-9813.878,3208.9001,-9707.52,-9940.283,-14355.002,3330.545,-14244.482,-14463.281,-15012.296,386.49445,-14952.002,-15081.787,-9917.595,4691.639,-9788.623,-10080.615,-13512.526,286.9027,-13450.977,-13582.324,-13427.982,4244.1533,-13289.99,-13593.701,-17318.1,17467.79,-17106.787,-17598.438,-10362.913,1152.4021,-10253.125,-10437.158,-13526.276,386.09885,-13462.793,-13598.535,-12369.58,1051.5355,-12276.807,-12459.57,-10529.076,2874.427,-10406.201,-10625.781,-12032.617,1964.4474,-11913.623,-12223.877,-4903.2026,191.89072,-4859.668,-4955.2246,-14969.584,22440.607,-14676.318,-15282.666,-8959.175,1094.7954,-8856.152,-9072.119,-10400.847,3797.5815,-10249.512,-10531.055,-9826.729,4417.2637,-9661.963,-9985.498,1,1
-25065.836,2262.6013,-24945.508,-25164.307,-19244.312,96800.14,-18643.36,-19728.613,-17950.97,49419.297,-17463.477,-18233.35,-8854.3545,163638.88,-7977.1484,-9473.242,-2180.8105,470925.53,-1389.0137,-3004.248,-5621.689,4858.408,-5456.1523,-5711.4746,3362.8838,249.72658,3398.9746,3324.9512,-1891.0593,7829.8916,-1695.2637,-2002.7344,3990.3809,409.66144,4050.7324,3944.1406,3324.1233,239.87422,3369.7754,3269.0918,4787.359,2683.385,4917.4805,4694.2383,4524.6436,393.13315,4569.1895,4483.6426,9415.028,26442.166,9711.426,9127.588,619.2295,4124.556,752.0508,510.2539,-3370.0054,368.07358,-3321.9727,-3419.043,-6220.703,2818.4338,-6077.1973,-6311.963,3780.1423,492.4792,3851.7578,3729.4922,-1179.5698,6667.565,-1011.23047,-1324.707,-6529.449,2099.0203,-6384.1797,-6601.2207,3754.5945,25785.629,4056.9824,3494.6777,-8084.7163,18580.451,-7771.045,-8270.703,3237.8013,3608.4463,3388.7695,3137.5977,-18484.518,56519.7,-18034.62,-18940.918,-23258.246,67055.75,-22795.752,-23700.146,1473.0249,2547.0535,1622.5586,1370.9961,359.46362,1330.8789,471.28906,262.6953,-9177.702,30067.9,-8904.248,-9566.748,-19645.188,28863.195,-19283.545,-19934.62,1910.8864,728.11426,2009.375,1849.707,-2171.7905,292.35822,-2119.6777,-2222.754,-2198.3997,4344.7695,-2048.877,-2312.7441,2542.4597,5774.7764,2751.0254,2427.1973,-2647.271,5304.606,-2481.25,-2784.2773,2646.616,10547.599,2873.2422,2458.1543,-9736.733,518385.78,-8772.217,-10882.617,-5553.925,1314.6296,-5441.8457,-5663.2324,-413502.1,12601.908,-413195.5,-413692.4,-11537.924,246364.23,-10652.246,-12241.211,-7127.8594,122472.61,-6434.8145,-7637.5,2304.5095,499.7583,2374.6094,2253.7598,-4718.036,12971.359,-4526.9043,-4944.2383,5270.882,1779.8481,5379.199,5186.133,-2159.8455,6291.6553,-1994.6289,-2299.17,-3359.2866,3006.34,-3211.8164,-3470.6543,5317.501,2974.5527,5435.0586,5218.506,-293.22903,1456.4948,-201.85547,-394.18945,6114.1064,709.48035,6190.381,6065.674,-795.93365,2554.7515,-682.4219,-926.80664,3562.6655,311.56244,3611.3281,3503.6133,6326.6777,5594.821,6474.463,6147.3633,4591.6113,333.35202,4651.8555,4532.91,-5050.376,19798.94,-4799.0723,-5358.5938,5308.112,251.69542,5367.1875,5265.332,3444.864,3315.3872,3583.0566,3307.129,5829.862,266.08673,5888.2324,5770.9473,-728.20874,1072.113,-655.61523,-818.7988,-4067.7817,5530.743,-3902.1973,-4246.7285,3817.807,547.87036,3891.5527,3733.496,-411450.88,12618.89,-411145.25,-411640.47,-5039.8584,762.99774,-4958.496,-5132.5684,4212.0396,425.15106,4270.801,4142.627,-411615.7,12606.961,-411309.8,-411806.2,1,1
-1107.506,456.06668,-1017.041,-1235.8398,-3595.682,209.73242,-3547.8027,-3682.2754,-22010.508,4991.915,-21796.924,-22184.57,-24577.248,9795.483,-24348.682,-24790.527,3809.6045,200.63177,3860.8887,3734.5215,-3628.4727,81.88501,-3606.2988,-3658.789,-403.2693,665.44165,-353.27148,-449.02344,-3182.5898,539.06744,-3122.168,-3236.7676,1732.2169,933.01984,1801.0742,1664.6973,-4568.5317,582.4735,-4479.0527,-4621.3867,-2834.0957,454.1916,-2764.502,-2902.7344,867.0079,156.20573,909.1797,823.584,-3944.2395,929.24585,-3861.8652,-3990.2344,-102.86371,378.975,-48.876953,-151.36719,-2420.1355,21430.73,-2158.4473,-2658.2031,984.84186,270.2569,1032.2266,930.5176,-1686.6501,11273.924,-1462.793,-1899.0234,-44.051975,28.121588,-31.445312,-55.615234,-1914.936,228.48389,-1865.0391,-1971.4844,-1203.7136,1026.9104,-1132.4707,-1294.9219,-1143.9019,677.5135,-1066.0645,-1214.0137,-2227.62,349.31595,-2178.0762,-2290.1855,-11748.795,2480.768,-11647.754,-11887.549,-1994.6301,993.9382,-1918.457,-2075.4883,-12446.179,4154.071,-12230.664,-12660.303,-1213.1362,2806.3818,-1100.0488,-1332.666,-1619.626,114.87669,-1581.4941,-1650.5371,-4235.7744,272.56137,-4178.2715,-4277.9297,-652.04974,789.2854,-573.3887,-713.08594,835.669,15978.707,1069.7266,595.8008,1315.0454,429.4742,1400.8301,1253.6621,-4735.494,3038.6406,-4602.002,-4836.035,2423.1973,626.04034,2478.3691,2369.7266,-1171.8955,3906.9724,-1037.793,-1330.3223,-12913.185,31627.041,-12536.523,-13213.525,-3330.7756,14028.028,-3098.584,-3575.6348,-222.49512,10988.935,1.3671875,-457.22656,-19192.984,58124.277,-18739.795,-19547.021,-17655.201,643.1554,-17584.912,-17859.13,-456.64264,109.494774,-415.625,-502.00195,-4812.8516,664.55286,-4736.1816,-4897.6562,-3575.6611,451.618,-3512.5488,-3637.8906,-1611.2347,3591.8308,-1459.9609,-1761.9629,-5281.264,1597.8839,-5176.074,-5385.449,-2802.598,123.39342,-2766.3086,-2837.5488,258.9252,1310.6969,363.23242,176.51367,-9636.172,55104.316,-9214.404,-10081.494,-6484.106,11707.922,-6262.207,-6681.006,-5967.69,24536.273,-5674.121,-6278.2227,2968.7603,1908.1653,3091.7969,2853.8086,-5852.3125,22508.297,-5569.824,-6149.414,416.5282,338.39203,482.91016,343.84766,-4726.7017,233.07086,-4682.129,-4792.871,-2945.7854,455.97818,-2877.4414,-3019.4824,-4362.82,19877.0,-4081.4941,-4668.994,-3965.154,9081.102,-3761.4258,-4175.244,-17228.969,45731.31,-16748.291,-17539.014,-3343.2412,350.0514,-3278.662,-3411.67,1913.444,672.869,1992.041,1812.5,2222.6128,912.71356,2318.457,2138.9648,-4296.8115,601.0379,-4219.7754,-4378.125,-2183.4783,10275.921,-1929.0527,-2429.4922,1,1
